PE UV       SUBTECH     SPECTRUM    ASCII       PEDS        4.00        
   -1
SampleCrBSOorizzontale.Sample.asc
11/01/16
05:03:32.00
11/01/16
05:03:32.00
PerkinElmer Method Developer

250.000000
1
Lambda 35
502S12111107
PerkinElmer UV WinLab 6.0.4.0738 / Lambda35 1.27

480
2
1
0
0
Both on
1
1
1
None
0
0
0
0
 
 
0
0
0
0
0
 
 
 
0
 
0
326
0
 
0
 
 
 
0
0
0
 
0
 
 
 
0
 
 
0
0
0
0
0
 
 
 
 
0
0


0
0
#HDR
-1
-1
#GR
nm
%T
1.0
0.0
900.000000
-1.000000
651
8
65.703952
-0.526763
#DATA
900.000000	65.493713
899.000000	65.488109
898.000000	65.400617
897.000000	65.351243
896.000000	65.449452
895.000000	65.447835
894.000000	65.531852
893.000000	65.487600
892.000000	65.444092
891.000000	65.524264
890.000000	65.491171
889.000000	65.626716
888.000000	65.462551
887.000000	65.531766
886.000000	65.656059
885.000000	65.412890
884.000000	65.625632
883.000000	65.528249
882.000000	65.341917
881.000000	65.648894
880.000000	65.450556
879.000000	65.486001
878.000000	65.489270
877.000000	65.413882
876.000000	65.703952
875.000000	65.606712
874.000000	65.626946
873.000000	65.355640
872.000000	65.436539
871.000000	65.568110
870.000000	65.373338
869.000000	65.382796
868.000000	65.248974
867.000000	65.476316
866.000000	65.549555
865.000000	65.364224
864.000000	65.488466
863.000000	65.486726
862.000000	65.370252
861.000000	65.468934
860.000000	65.456787
859.000000	65.205259
858.000000	65.388339
857.000000	65.458963
856.000000	65.418490
855.000000	65.356292
854.000000	65.313093
853.000000	65.386704
852.000000	65.332680
851.000000	65.254330
850.000000	65.287632
849.000000	65.331220
848.000000	65.226191
847.000000	65.334211
846.000000	65.318109
845.000000	65.371083
844.000000	65.256615
843.000000	65.428351
842.000000	65.196538
841.000000	65.250028
840.000000	65.228917
839.000000	65.332226
838.000000	65.110103
837.000000	65.120789
836.000000	65.192542
835.000000	65.282641
834.000000	65.358314
833.000000	65.179464
832.000000	65.279323
831.000000	65.218360
830.000000	65.261693
829.000000	65.244276
828.000000	65.137666
827.000000	65.008624
826.000000	65.300089
825.000000	65.168915
824.000000	65.180065
823.000000	65.154892
822.000000	65.161830
821.000000	65.091659
820.000000	65.179567
819.000000	65.262454
818.000000	65.014204
817.000000	65.075209
816.000000	65.050325
815.000000	65.228525
814.000000	65.117055
813.000000	65.057497
812.000000	65.116150
811.000000	65.071345
810.000000	65.109692
809.000000	65.119893
808.000000	65.044027
807.000000	65.190154
806.000000	65.061441
805.000000	64.996128
804.000000	65.140202
803.000000	65.057776
802.000000	65.085683
801.000000	64.860391
800.000000	65.138222
799.000000	64.939646
798.000000	65.142164
797.000000	64.913053
796.000000	64.891746
795.000000	64.989840
794.000000	64.869909
793.000000	64.903240
792.000000	64.927377
791.000000	65.023011
790.000000	65.045410
789.000000	64.989071
788.000000	64.977613
787.000000	65.038210
786.000000	65.008455
785.000000	64.968951
784.000000	64.978765
783.000000	64.957544
782.000000	64.982323
781.000000	64.996471
780.000000	64.957682
779.000000	64.947951
778.000000	64.867650
777.000000	64.935487
776.000000	64.994855
775.000000	64.892351
774.000000	64.953524
773.000000	64.905844
772.000000	64.778790
771.000000	64.814815
770.000000	64.868938
769.000000	64.820391
768.000000	64.881432
767.000000	64.842365
766.000000	64.827846
765.000000	64.762977
764.000000	64.819484
763.000000	64.779672
762.000000	64.677868
761.000000	64.796656
760.000000	64.750937
759.000000	64.785119
758.000000	64.769633
757.000000	64.747626
756.000000	64.693333
755.000000	64.736926
754.000000	64.750040
753.000000	64.647647
752.000000	64.683659
751.000000	64.606054
750.000000	64.605249
749.000000	64.636803
748.000000	64.582780
747.000000	64.660576
746.000000	64.623719
745.000000	64.598811
744.000000	64.570520
743.000000	64.631300
742.000000	64.552733
741.000000	64.639771
740.000000	64.564676
739.000000	64.573064
738.000000	64.527403
737.000000	64.515617
736.000000	64.497167
735.000000	64.468671
734.000000	64.508101
733.000000	64.484547
732.000000	64.469853
731.000000	64.443269
730.000000	64.430808
729.000000	64.478070
728.000000	64.405524
727.000000	64.439153
726.000000	64.437272
725.000000	64.418802
724.000000	64.372684
723.000000	64.348056
722.000000	64.334850
721.000000	64.361308
720.000000	64.329220
719.000000	64.278528
718.000000	64.336813
717.000000	64.314100
716.000000	64.314869
715.000000	64.282308
714.000000	64.333811
713.000000	64.258434
712.000000	64.262608
711.000000	64.270546
710.000000	64.216388
709.000000	64.217456
708.000000	64.187503
707.000000	64.217795
706.000000	64.252312
705.000000	64.192674
704.000000	64.163079
703.000000	64.147431
702.000000	64.072716
701.000000	64.113611
700.000000	64.155761
699.000000	64.153355
698.000000	64.141199
697.000000	64.072239
696.000000	64.057755
695.000000	64.042190
694.000000	64.052253
693.000000	64.055250
692.000000	64.021333
691.000000	64.045903
690.000000	64.049984
689.000000	64.016669
688.000000	63.987396
687.000000	64.046626
686.000000	63.967720
685.000000	63.957219
684.000000	63.954421
683.000000	63.865905
682.000000	64.008552
681.000000	63.829105
680.000000	63.892007
679.000000	63.928992
678.000000	63.887701
677.000000	63.737849
676.000000	63.748063
675.000000	63.910579
674.000000	63.942231
673.000000	63.724234
672.000000	63.847181
671.000000	63.785920
670.000000	63.886215
669.000000	63.893786
668.000000	63.911905
667.000000	63.890077
666.000000	63.825131
665.000000	63.803419
664.000000	63.692193
663.000000	63.651404
662.000000	63.872863
661.000000	63.661596
660.000000	63.759607
659.000000	63.737261
658.000000	63.670312
657.000000	63.654779
656.000000	63.678994
655.000000	63.697389
654.000000	63.619900
653.000000	63.597636
652.000000	63.624761
651.000000	63.564778
650.000000	63.573481
649.000000	63.657641
648.000000	63.642169
647.000000	63.601553
646.000000	63.691522
645.000000	63.625731
644.000000	63.619453
643.000000	63.584184
642.000000	63.648440
641.000000	63.527224
640.000000	63.474707
639.000000	63.542718
638.000000	63.452154
637.000000	63.454603
636.000000	63.464500
635.000000	63.528288
634.000000	63.495012
633.000000	63.311757
632.000000	63.439490
631.000000	63.469496
630.000000	63.337400
629.000000	63.455520
628.000000	63.346423
627.000000	63.382298
626.000000	63.394184
625.000000	63.358617
624.000000	63.313358
623.000000	63.343420
622.000000	63.346783
621.000000	63.274618
620.000000	63.268772
619.000000	63.258701
618.000000	63.217659
617.000000	63.318824
616.000000	63.170732
615.000000	63.162085
614.000000	63.200085
613.000000	63.204291
612.000000	63.114885
611.000000	63.099846
610.000000	63.083121
609.000000	63.150074
608.000000	63.002069
607.000000	63.073005
606.000000	63.064354
605.000000	63.042209
604.000000	62.989702
603.000000	63.106177
602.000000	63.059523
601.000000	62.968078
600.000000	63.013117
599.000000	62.997023
598.000000	62.919855
597.000000	62.935390
596.000000	62.970645
595.000000	62.998881
594.000000	62.992168
593.000000	62.934713
592.000000	62.967907
591.000000	62.883239
590.000000	62.928316
589.000000	62.819553
588.000000	62.880575
587.000000	62.854229
586.000000	62.885823
585.000000	62.724342
584.000000	62.811608
583.000000	62.863764
582.000000	62.813664
581.000000	62.842947
580.000000	62.753999
579.000000	62.856216
578.000000	62.791075
577.000000	62.776845
576.000000	62.697165
575.000000	62.615151
574.000000	62.708186
573.000000	62.702938
572.000000	62.540717
571.000000	62.642022
570.000000	62.672109
569.000000	62.600120
568.000000	62.634072
567.000000	62.628740
566.000000	62.566145
565.000000	62.489088
564.000000	62.456351
563.000000	62.426262
562.000000	62.590203
561.000000	62.437770
560.000000	62.535581
559.000000	62.465093
558.000000	62.432818
557.000000	62.378521
556.000000	62.429332
555.000000	62.298055
554.000000	62.379068
553.000000	62.267678
552.000000	62.190832
551.000000	62.200220
550.000000	62.230057
549.000000	62.224548
548.000000	62.264879
547.000000	62.292368
546.000000	62.092369
545.000000	62.233015
544.000000	62.030137
543.000000	62.148422
542.000000	62.132434
541.000000	61.962953
540.000000	61.981733
539.000000	61.978705
538.000000	62.021873
537.000000	61.976364
536.000000	61.968233
535.000000	61.838889
534.000000	61.854408
533.000000	61.805633
532.000000	61.838145
531.000000	61.858545
530.000000	61.759616
529.000000	61.740879
528.000000	61.761084
527.000000	61.638390
526.000000	61.741617
525.000000	61.648987
524.000000	61.603684
523.000000	61.608148
522.000000	61.644144
521.000000	61.580551
520.000000	61.577551
519.000000	61.473280
518.000000	61.464878
517.000000	61.407781
516.000000	61.430678
515.000000	61.402113
514.000000	61.402710
513.000000	61.326345
512.000000	61.307420
511.000000	61.376356
510.000000	61.344922
509.000000	61.162658
508.000000	61.223084
507.000000	61.275862
506.000000	61.121657
505.000000	61.198938
504.000000	61.205850
503.000000	61.235369
502.000000	61.092091
501.000000	61.134661
500.000000	61.103673
499.000000	61.088427
498.000000	61.073433
497.000000	60.971613
496.000000	60.848918
495.000000	60.943929
494.000000	60.940262
493.000000	60.851616
492.000000	60.831756
491.000000	60.953455
490.000000	60.810409
489.000000	60.808394
488.000000	60.794267
487.000000	60.776327
486.000000	60.730374
485.000000	60.708903
484.000000	60.690780
483.000000	60.683346
482.000000	60.722965
481.000000	60.550850
480.000000	60.634979
479.000000	60.556475
478.000000	60.512726
477.000000	60.475309
476.000000	60.382497
475.000000	60.394688
474.000000	60.434972
473.000000	60.242849
472.000000	60.240737
471.000000	60.115752
470.000000	60.257869
469.000000	60.219418
468.000000	60.215191
467.000000	60.058681
466.000000	60.092213
465.000000	60.051480
464.000000	59.931595
463.000000	59.695990
462.000000	60.061154
461.000000	59.956992
460.000000	59.804372
459.000000	59.691297
458.000000	59.784904
457.000000	59.492164
456.000000	59.568393
455.000000	59.658257
454.000000	59.521102
453.000000	59.596981
452.000000	59.330499
451.000000	59.508496
450.000000	59.295220
449.000000	59.185761
448.000000	59.079389
447.000000	59.113131
446.000000	58.672274
445.000000	58.904871
444.000000	58.854749
443.000000	59.020076
442.000000	59.057510
441.000000	58.844381
440.000000	58.634681
439.000000	58.697054
438.000000	58.618701
437.000000	58.834627
436.000000	58.486856
435.000000	58.369947
434.000000	58.503752
433.000000	58.314165
432.000000	58.545699
431.000000	58.127341
430.000000	58.515383
429.000000	58.256114
428.000000	58.048037
427.000000	57.761126
426.000000	57.734977
425.000000	57.763831
424.000000	57.849177
423.000000	57.948396
422.000000	57.714195
421.000000	57.311470
420.000000	57.663827
419.000000	57.612609
418.000000	57.512246
417.000000	57.445261
416.000000	57.348048
415.000000	57.085780
414.000000	57.215522
413.000000	57.063963
412.000000	57.039861
411.000000	56.950112
410.000000	56.878506
409.000000	56.847241
408.000000	56.800880
407.000000	56.574586
406.000000	56.556676
405.000000	56.356769
404.000000	56.369757
403.000000	56.212042
402.000000	56.047403
401.000000	55.961454
400.000000	55.884171
399.000000	55.841163
398.000000	55.541696
397.000000	55.757684
396.000000	55.354572
395.000000	55.252672
394.000000	55.176802
393.000000	55.102975
392.000000	55.181634
391.000000	55.029256
390.000000	54.880552
389.000000	54.744252
388.000000	54.673338
387.000000	54.526456
386.000000	54.398170
385.000000	53.094083
384.000000	55.346778
383.000000	52.584333
382.000000	54.279480
381.000000	53.007481
380.000000	55.040683
379.000000	52.650070
378.000000	53.372733
377.000000	52.686239
376.000000	52.771304
375.000000	53.367243
374.000000	53.081593
373.000000	52.468045
372.000000	53.227007
371.000000	53.864914
370.000000	53.169844
369.000000	51.979033
368.000000	52.669039
367.000000	52.321507
366.000000	51.913823
365.000000	52.259136
364.000000	52.066852
363.000000	51.560395
362.000000	52.141718
361.000000	50.540727
360.000000	51.993584
359.000000	51.395617
358.000000	52.219998
357.000000	52.707156
356.000000	51.452627
355.000000	52.134831
354.000000	50.948092
353.000000	51.159140
352.000000	52.742616
351.000000	49.460148
350.000000	49.987775
349.000000	50.246366
348.000000	51.014021
347.000000	49.245663
346.000000	50.038061
345.000000	49.456384
344.000000	49.286541
343.000000	49.140585
342.000000	49.632256
341.000000	49.240241
340.000000	47.452521
339.000000	47.380319
338.000000	48.392219
337.000000	47.828418
336.000000	47.273936
335.000000	44.502338
334.000000	45.923098
333.000000	43.458460
332.000000	45.227366
331.000000	42.226488
330.000000	43.631742
329.000000	39.703621
328.000000	41.525301
327.000000	37.690013
326.000000	37.400712
325.000000	36.835582
324.000000	35.793306
323.000000	34.452494
322.000000	33.738688
321.000000	31.039366
320.000000	30.539431
319.000000	28.129918
318.000000	27.604695
317.000000	25.754703
316.000000	24.772126
315.000000	21.118197
314.000000	20.519713
313.000000	18.547537
312.000000	15.783882
311.000000	14.703210
310.000000	11.469369
309.000000	10.347490
308.000000	8.493065
307.000000	6.907946
306.000000	4.770178
305.000000	2.786675
304.000000	1.888315
303.000000	1.175702
302.000000	0.362080
301.000000	0.934579
300.000000	0.671141
299.000000	-0.526763
298.000000	-0.207111
297.000000	0.349589
296.000000	0.970874
295.000000	0.017809
294.000000	0.662133
293.000000	0.802188
292.000000	1.358795
291.000000	0.355007
290.000000	0.772128
289.000000	0.019175
288.000000	1.068498
287.000000	0.592066
286.000000	0.397062
285.000000	1.245981
284.000000	1.996333
283.000000	1.408451
282.000000	1.368159
281.000000	2.057700
280.000000	1.646707
279.000000	2.431676
278.000000	1.758958
277.000000	1.972819
276.000000	1.687486
275.000000	1.994681
274.000000	1.946744
273.000000	1.907540
272.000000	1.633394
271.000000	1.872574
270.000000	0.503778
269.000000	0.642349
268.000000	1.970329
267.000000	1.853139
266.000000	2.169349
265.000000	1.196341
264.000000	1.799242
263.000000	1.440038
262.000000	1.340675
261.000000	0.794798
260.000000	1.242387
259.000000	1.453560
258.000000	1.883519
257.000000	0.801402
256.000000	1.989423
255.000000	1.095821
254.000000	1.577042
253.000000	1.431546
252.000000	1.926121
251.000000	0.801710
250.000000	1.257518
